Wavelength (Âµm)	Augite ws592 spliced
0.301100	0.045344
0.305100	0.047974
0.309100	0.049266
0.313100	0.054325
0.317100	0.058099
0.321100	0.062474
0.325100	0.068898
0.329100	0.072329
0.333100	0.076753
0.337100	0.081827
0.341100	0.085483
0.345100	0.090081
0.349100	0.095055
0.353100	0.100909
0.357100	0.106824
0.360600	0.110864
0.363600	0.117003
0.366600	0.121547
0.369600	0.124597
0.372600	0.129644
0.375600	0.132322
0.378600	0.138221
0.381100	0.140512
0.383100	0.143531
0.385100	0.145015
0.387100	0.149176
0.389100	0.151659
0.391100	0.153158
0.393100	0.157966
0.395100	0.159176
0.397100	0.162667
0.399100	0.163785
0.401100	0.166948
0.403100	0.168349
0.405100	0.168709
0.407100	0.172540
0.409100	0.173716
0.411100	0.176884
0.412800	0.177089
0.415800	0.180226
0.418800	0.184615
0.421800	0.183561
0.424800	0.190318
0.427800	0.191427
0.430800	0.193831
0.433800	0.197276
0.436800	0.200065
0.439800	0.202034
0.442800	0.202825
0.445800	0.208910
0.448800	0.209787
0.451300	0.211960
0.453300	0.211872
0.455300	0.214427
0.457300	0.216344
0.459300	0.216792
0.461300	0.215060
0.463300	0.220289
0.465300	0.222859
0.467300	0.223882
0.469300	0.222772
0.471300	0.227273
0.473300	0.228328
0.475300	0.231038
0.477300	0.229720
0.479300	0.232470
0.481300	0.235417
0.483300	0.239724
0.485300	0.240843
0.487300	0.241780
0.489300	0.241819
0.491300	0.247792
0.493300	0.249115
0.495300	0.252438
0.497300	0.255810
0.499300	0.256839
0.501300	0.257050
0.503300	0.261311
0.505300	0.264440
0.507300	0.267013
0.509300	0.269426
0.511300	0.271140
0.513300	0.276358
0.515300	0.278234
0.517300	0.284011
0.519300	0.282745
0.521300	0.287643
0.523300	0.289506
0.525300	0.293541
0.527300	0.293731
0.529300	0.298782
0.531300	0.298164
0.533300	0.300794
0.535300	0.301979
0.537300	0.301786
0.539300	0.306166
0.541300	0.306226
0.543300	0.308834
0.545300	0.308181
0.547300	0.311339
0.549300	0.312398
0.551300	0.312344
0.553300	0.314145
0.555300	0.315838
0.557300	0.316209
0.559300	0.317829
0.561300	0.316716
0.563300	0.319832
0.565300	0.319435
0.567300	0.319705
0.569300	0.316734
0.571300	0.317828
0.573300	0.318697
0.575300	0.318088
0.577300	0.317891
0.579300	0.319108
0.581300	0.318378
0.583300	0.318094
0.585300	0.317291
0.587300	0.317210
0.589300	0.314933
0.591300	0.318045
0.593300	0.312463
0.595300	0.315078
0.597300	0.314272
0.599300	0.313964
0.601100	0.311026
0.602700	0.312741
0.604300	0.311936
0.605900	0.311901
0.607500	0.310492
0.609100	0.310882
0.610700	0.311576
0.612300	0.309167
0.613900	0.310254
0.615500	0.309231
0.617100	0.307541
0.618700	0.305963
0.620300	0.305478
0.621900	0.305230
0.623500	0.306216
0.625100	0.305162
0.626700	0.304835
0.628300	0.306960
0.629900	0.305570
0.631700	0.304047
0.633700	0.304422
0.635700	0.304298
0.637700	0.304267
0.639700	0.303402
0.641700	0.305965
0.643700	0.307613
0.645700	0.306535
0.647700	0.304953
0.649700	0.304906
0.651700	0.305381
0.653700	0.305566
0.655700	0.305122
0.657700	0.305534
0.659700	0.306764
0.661700	0.309180
0.663700	0.308118
0.665700	0.307099
0.667700	0.309878
0.670200	0.309807
0.673200	0.313442
0.676200	0.312065
0.679200	0.313727
0.682200	0.318601
0.685200	0.316935
0.688200	0.316817
0.691200	0.317473
0.694200	0.319430
0.697200	0.320477
0.700200	0.323166
0.702000	0.322715
0.704000	0.324259
0.706000	0.325823
0.708000	0.327294
0.710000	0.328334
0.712000	0.330864
0.714000	0.330654
0.716000	0.331674
0.718000	0.334067
0.720000	0.334933
0.722000	0.335565
0.724000	0.337134
0.726000	0.339006
0.728000	0.340686
0.730000	0.339565
0.732000	0.342911
0.734000	0.343455
0.736000	0.343783
0.738000	0.345292
0.740000	0.344350
0.742000	0.349551
0.744000	0.348105
0.746000	0.349685
0.748000	0.350797
0.750500	0.351392
0.753500	0.353369
0.756500	0.355620
0.759500	0.355537
0.762500	0.357535
0.765500	0.357589
0.768500	0.359202
0.771500	0.359626
0.774500	0.361499
0.777500	0.362830
0.781000	0.364041
0.785000	0.366550
0.789000	0.368136
0.793000	0.368922
0.797000	0.369904
0.801500	0.373630
0.806500	0.373120
0.811500	0.374480
0.816500	0.376794
0.822000	0.379163
0.828000	0.379566
0.835000	0.379617
0.843000	0.380363
0.851000	0.377365
0.859000	0.370298
0.871000	0.366689
0.883000	0.353368
0.894000	0.342254
0.904000	0.328396
0.914000	0.323247
0.924000	0.309228
0.933000	0.302725
0.941000	0.289307
0.949000	0.279171
0.957000	0.271928
0.964000	0.265323
0.970000	0.259981
0.976000	0.256649
0.982000	0.252348
0.988000	0.249680
0.994000	0.248187
1.000000	0.242020
1.006000	0.242471
1.012000	0.239114
1.018000	0.240097
1.023500	0.239855
1.028500	0.236998
1.033500	0.241641
1.038500	0.242228
1.043500	0.244289
1.048500	0.247132
1.053500	0.249736
1.058500	0.252345
1.063500	0.256958
1.068500	0.260555
1.073500	0.263763
1.078500	0.267575
1.083500	0.273104
1.088500	0.279770
1.093500	0.284820
1.098500	0.285029
1.103500	0.293785
1.108500	0.300125
1.113500	0.305556
1.118500	0.313480
1.123500	0.319884
1.128500	0.324634
1.133500	0.330601
1.138500	0.336122
1.143500	0.339521
1.148500	0.342924
1.153500	0.351232
1.158500	0.356164
1.163500	0.361454
1.168500	0.365777
1.173500	0.370223
1.178500	0.375329
1.183500	0.377222
1.188500	0.382798
1.193500	0.383997
1.198500	0.384599
1.203500	0.391056
1.208500	0.394216
1.213500	0.400370
1.218500	0.400033
1.223500	0.402788
1.228500	0.405361
1.233500	0.409469
1.238500	0.411849
1.243500	0.414276
1.248500	0.415838
1.253500	0.420889
1.258500	0.424064
1.263500	0.424998
1.268500	0.425247
1.273500	0.430534
1.278500	0.432497
1.283500	0.435141
1.288500	0.437642
1.293500	0.438444
1.298500	0.442102
1.303500	0.443538
1.308500	0.447379
1.313500	0.451669
1.318500	0.453508
1.323500	0.453193
1.328500	0.456625
1.333500	0.456245
1.338500	0.459959
1.343500	0.461681
1.348500	0.466190
1.353500	0.463562
1.358500	0.467019
1.363500	0.470746
1.368500	0.473714
1.373500	0.477356
1.378500	0.474172
1.383500	0.476435
1.388500	0.475841
1.393500	0.478694
1.398500	0.485312
1.403500	0.484968
1.408500	0.481620
1.413500	0.487330
1.418500	0.488410
1.423500	0.494088
1.428500	0.495768
1.433500	0.495289
1.438500	0.498482
1.443500	0.501108
1.448500	0.505594
1.453500	0.505374
1.458500	0.507541
1.463500	0.512366
1.468500	0.511614
1.473500	0.515070
1.478500	0.514792
1.483500	0.519637
1.488500	0.520257
1.493500	0.522871
1.498500	0.527894
1.503500	0.525795
1.508500	0.525591
1.513500	0.528920
1.518500	0.530397
1.523500	0.532374
1.528500	0.532093
1.534000	0.535013
1.540000	0.539179
1.546000	0.541510
1.552000	0.542052
1.558000	0.544132
1.564000	0.545796
1.570500	0.545860
1.577500	0.546206
1.584500	0.547210
1.591500	0.550318
1.598500	0.551399
1.605500	0.551822
1.612500	0.553690
1.619500	0.554896
1.626500	0.554743
1.633500	0.552095
1.640500	0.555525
1.647500	0.555198
1.654500	0.553602
1.661500	0.556407
1.668500	0.556146
1.676000	0.554885
1.684000	0.556100
1.692000	0.554668
1.700000	0.551434
1.708000	0.557762
1.716000	0.554575
1.724000	0.554471
1.732000	0.552681
1.740000	0.550891
1.748000	0.550344
1.756000	0.547160
1.764000	0.543626
1.772000	0.546538
1.780000	0.542208
1.788000	0.535237
1.796000	0.538774
1.800053	0.533536
1.800679	0.533391
1.801304	0.533149
1.801931	0.533004
1.802557	0.533053
1.803184	0.533004
1.803812	0.532859
1.804439	0.532617
1.805068	0.532714
1.805696	0.532423
1.806326	0.532182
1.806955	0.532133
1.807585	0.531940
1.808216	0.531698
1.808847	0.531456
1.809478	0.531359
1.810110	0.531117
1.810742	0.530923
1.811375	0.530972
1.812008	0.530585
1.812641	0.530343
1.813275	0.530294
1.813910	0.530246
1.814545	0.530198
1.815180	0.529810
1.815816	0.529714
1.816452	0.529762
1.817089	0.529810
1.817726	0.529520
1.818363	0.529472
1.819001	0.529375
1.819640	0.528697
1.820279	0.527778
1.820918	0.527972
1.821558	0.527923
1.822199	0.528117
1.822839	0.528456
1.823480	0.528794
1.824122	0.528649
1.824764	0.528504
1.825406	0.527439
1.826049	0.526230
1.826693	0.526955
1.827337	0.527585
1.827981	0.527101
1.828626	0.526762
1.829271	0.526665
1.829917	0.526423
1.830563	0.525504
1.831210	0.525504
1.831857	0.526230
1.832504	0.526084
1.833152	0.526181
1.833801	0.525988
1.834450	0.525213
1.835099	0.524681
1.835749	0.524004
1.836399	0.523859
1.837050	0.523810
1.837701	0.523375
1.838353	0.524391
1.839005	0.524052
1.839658	0.522939
1.840311	0.523568
1.840964	0.523278
1.841618	0.521729
1.842272	0.522504
1.842927	0.523713
1.843583	0.523762
1.844238	0.523762
1.844895	0.523713
1.845551	0.523423
1.846209	0.521778
1.846867	0.520133
1.847525	0.520423
1.848184	0.520859
1.848843	0.521778
1.849502	0.522262
1.850162	0.522165
1.850823	0.521971
1.851484	0.521875
1.852145	0.521246
1.852807	0.520278
1.853469	0.519068
1.854132	0.519455
1.854796	0.520810
1.855459	0.520955
1.856124	0.519455
1.856789	0.519068
1.857454	0.519988
1.858120	0.520278
1.858786	0.519165
1.859453	0.517181
1.860120	0.517423
1.860788	0.518487
1.861456	0.519068
1.862124	0.518923
1.862794	0.518536
1.863463	0.517907
1.864133	0.517568
1.864804	0.517665
1.865475	0.517858
1.866146	0.517568
1.866818	0.516310
1.867491	0.514520
1.868164	0.514907
1.868837	0.515584
1.869511	0.515100
1.870185	0.513552
1.870860	0.512342
1.871536	0.513939
1.872212	0.513552
1.872888	0.511616
1.873565	0.512294
1.874242	0.513310
1.874920	0.512971
1.875599	0.512923
1.876277	0.512245
1.876957	0.511471
1.877637	0.512100
1.878317	0.512390
1.878998	0.512052
1.879679	0.511616
1.880361	0.511181
1.881043	0.510890
1.881726	0.510890
1.882409	0.510503
1.883093	0.509681
1.883777	0.508519
1.884462	0.508568
1.885147	0.508616
1.885833	0.508132
1.886519	0.507648
1.887206	0.507551
1.887893	0.507164
1.888581	0.506632
1.889269	0.505616
1.889958	0.504406
1.890647	0.504503
1.891337	0.504309
1.892027	0.503777
1.892718	0.503535
1.893409	0.502858
1.894101	0.502713
1.894793	0.502519
1.895486	0.501938
1.896179	0.501164
1.896873	0.500438
1.897568	0.499616
1.898262	0.498987
1.898958	0.497487
1.899654	0.496567
1.900350	0.497003
1.901047	0.497632
1.901744	0.497390
1.902442	0.495890
1.903140	0.495696
1.903839	0.496229
1.904539	0.495067
1.905239	0.493857
1.905939	0.494051
1.906640	0.494003
1.907342	0.494583
1.908044	0.494922
1.908746	0.494874
1.909449	0.494486
1.910153	0.493954
1.910857	0.493470
1.911561	0.493277
1.912266	0.493422
1.912972	0.492406
1.913678	0.491970
1.914385	0.492793
1.915092	0.493325
1.915800	0.493083
1.916508	0.492841
1.917217	0.492986
1.917926	0.493083
1.918636	0.492793
1.919346	0.491777
1.920057	0.490664
1.920768	0.490761
1.921480	0.491922
1.922193	0.492115
1.922906	0.492067
1.923620	0.491438
1.924333	0.491535
1.925048	0.491922
1.925763	0.491874
1.926479	0.491390
1.927195	0.491244
1.927912	0.490954
1.928629	0.490567
1.929346	0.490857
1.930065	0.490809
1.930784	0.490712
1.931503	0.490470
1.932223	0.490228
1.932943	0.490083
1.933664	0.489890
1.934386	0.490035
1.935108	0.489986
1.935830	0.489357
1.936554	0.489115
1.937277	0.489164
1.938002	0.488922
1.938726	0.488535
1.939452	0.488535
1.940177	0.488728
1.940904	0.488535
1.941631	0.488293
1.942358	0.488196
1.943086	0.488002
1.943815	0.487906
1.944544	0.487857
1.945274	0.487809
1.946004	0.487760
1.946735	0.487422
1.947466	0.486889
1.948198	0.486793
1.948930	0.486889
1.949663	0.486357
1.950397	0.486067
1.951131	0.486164
1.951865	0.486018
1.952601	0.485535
1.953336	0.485293
1.954073	0.485147
1.954809	0.484857
1.955547	0.484615
1.956285	0.484325
1.957023	0.484131
1.957762	0.483889
1.958502	0.483647
1.959242	0.483599
1.959983	0.483405
1.960724	0.483164
1.961466	0.482825
1.962208	0.482389
1.962951	0.482196
1.963695	0.482099
1.964439	0.481954
1.965183	0.481615
1.965929	0.481373
1.966674	0.481083
1.967421	0.480696
1.968168	0.480309
1.968915	0.480018
1.969663	0.479825
1.970412	0.479728
1.971161	0.479438
1.971911	0.479099
1.972661	0.478954
1.973413	0.478809
1.974164	0.478518
1.974916	0.478228
1.975669	0.477938
1.976422	0.477502
1.977176	0.477163
1.977930	0.476921
1.978685	0.476728
1.979440	0.476776
1.980196	0.476825
1.980953	0.476486
1.981710	0.476196
1.982468	0.476002
1.983226	0.475518
1.983986	0.475373
1.984745	0.475179
1.985505	0.474841
1.986266	0.474260
1.987027	0.474115
1.987789	0.474018
1.988552	0.473873
1.989315	0.473679
1.990078	0.473292
1.990842	0.472953
1.991607	0.472760
1.992373	0.472421
1.993139	0.472228
1.993905	0.472179
1.994673	0.471841
1.995440	0.471550
1.996209	0.471308
1.996978	0.471018
1.997747	0.470921
1.998517	0.470873
1.999288	0.470534
2.000059	0.470098
2.000831	0.469905
2.001604	0.469615
2.002377	0.469227
2.003151	0.469082
2.003925	0.468986
2.004700	0.468647
2.005476	0.468453
2.006252	0.468260
2.007029	0.467921
2.007806	0.467776
2.008584	0.467921
2.009362	0.467727
2.010141	0.467340
2.010921	0.467050
2.011701	0.466856
2.012482	0.466663
2.013264	0.466324
2.014046	0.466082
2.014829	0.465840
2.015612	0.465889
2.016396	0.465695
2.017180	0.465405
2.017966	0.465163
2.018752	0.465066
2.019538	0.464872
2.020325	0.464582
2.021113	0.464340
2.021901	0.463905
2.022690	0.463711
2.023479	0.463566
2.024270	0.463518
2.025060	0.463227
2.025852	0.462889
2.026644	0.462695
2.027436	0.462501
2.028229	0.462211
2.029023	0.462066
2.029818	0.461776
2.030613	0.461340
2.031409	0.461001
2.032204	0.461001
2.033001	0.460808
2.033799	0.460614
2.034597	0.460421
2.035396	0.460130
2.036195	0.459840
2.036996	0.459695
2.037796	0.459405
2.038598	0.459163
2.039400	0.459114
2.040203	0.458872
2.041006	0.458388
2.041810	0.458098
2.042614	0.457904
2.043419	0.457566
2.044225	0.457469
2.045032	0.457324
2.045839	0.456888
2.046646	0.456598
2.047455	0.456453
2.048264	0.456114
2.049073	0.455872
2.049883	0.455630
2.050694	0.455437
2.051505	0.455291
2.052317	0.454856
2.053130	0.454421
2.053944	0.454275
2.054758	0.454179
2.055573	0.453791
2.056388	0.453404
2.057204	0.453211
2.058021	0.453017
2.058838	0.452775
2.059656	0.452291
2.060475	0.451904
2.061294	0.451566
2.062114	0.451324
2.062935	0.451130
2.063756	0.450743
2.064577	0.450404
2.065400	0.450162
2.066223	0.449775
2.067047	0.449582
2.067871	0.449291
2.068696	0.448952
2.069522	0.448614
2.070349	0.448275
2.071176	0.448033
2.072004	0.447791
2.072833	0.447404
2.073662	0.447065
2.074492	0.446920
2.075322	0.446485
2.076153	0.446243
2.076985	0.446001
2.077817	0.445614
2.078650	0.445275
2.079484	0.444936
2.080319	0.444598
2.081154	0.444501
2.081990	0.444210
2.082826	0.443968
2.083663	0.443630
2.084501	0.443291
2.085340	0.442904
2.086179	0.442517
2.087018	0.442130
2.087859	0.441743
2.088700	0.441452
2.089542	0.441259
2.090385	0.441017
2.091228	0.440823
2.092072	0.440678
2.092917	0.440388
2.093762	0.440001
2.094608	0.439710
2.095454	0.439323
2.096302	0.439130
2.097150	0.438742
2.097999	0.438259
2.098848	0.438017
2.099698	0.438065
2.100549	0.437726
2.101400	0.437339
2.102252	0.437049
2.103105	0.436904
2.103959	0.436710
2.104813	0.436226
2.105668	0.435839
2.106524	0.435839
2.107380	0.435646
2.108237	0.435355
2.109094	0.435065
2.109953	0.434823
2.110812	0.435588
2.111672	0.435731
2.112532	0.434823
2.113394	0.433915
2.114255	0.433485
2.115118	0.432768
2.115981	0.432242
2.116845	0.432195
2.117710	0.432147
2.118576	0.431860
2.119442	0.431526
2.120309	0.431000
2.121176	0.430379
2.122045	0.430379
2.122913	0.430426
2.123783	0.429996
2.124654	0.429423
2.125525	0.428945
2.126396	0.428802
2.127269	0.428467
2.128142	0.427942
2.129016	0.427607
2.129891	0.427559
2.130766	0.427464
2.131642	0.426842
2.132519	0.425887
2.133397	0.425648
2.134275	0.425934
2.135154	0.425457
2.136034	0.424931
2.136914	0.424166
2.137795	0.423736
2.138677	0.423927
2.139560	0.424071
2.140444	0.423736
2.141328	0.423067
2.142213	0.422207
2.143099	0.421729
2.143985	0.421777
2.144872	0.421586
2.145760	0.421538
2.146648	0.421442
2.147537	0.421012
2.148427	0.421012
2.149318	0.420964
2.150209	0.420295
2.151101	0.419674
2.151994	0.419770
2.152888	0.419579
2.153783	0.418910
2.154678	0.418575
2.155574	0.418718
2.156470	0.418241
2.157368	0.417715
2.158266	0.417428
2.159165	0.417189
2.160064	0.416902
2.160964	0.416186
2.161865	0.415708
2.162767	0.416042
2.163670	0.416233
2.164573	0.416042
2.165478	0.415517
2.166383	0.415087
2.167288	0.415230
2.168195	0.414752
2.169102	0.414035
2.170010	0.413366
2.170919	0.413414
2.171828	0.413414
2.172739	0.412602
2.173650	0.412267
2.174561	0.412315
2.175474	0.412219
2.176387	0.411741
2.177301	0.411359
2.178216	0.411263
2.179132	0.411025
2.180048	0.410881
2.180965	0.410499
2.181883	0.409734
2.182801	0.409639
2.183721	0.409495
2.184641	0.409065
2.185562	0.408779
2.186484	0.408635
2.187407	0.408492
2.188330	0.408110
2.189254	0.407871
2.190179	0.407775
2.191105	0.407488
2.192032	0.407154
2.192959	0.406771
2.193887	0.406294
2.194816	0.405672
2.195745	0.405481
2.196676	0.405481
2.197607	0.405099
2.198539	0.405386
2.199472	0.405386
2.200405	0.404908
2.201339	0.404382
2.202275	0.403952
2.203211	0.403809
2.204147	0.403761
2.205085	0.403522
2.206023	0.403235
2.206962	0.403092
2.207902	0.402805
2.208843	0.402232
2.209784	0.401993
2.210727	0.401849
2.211670	0.401563
2.212614	0.401276
2.213559	0.401180
2.214504	0.400702
2.215451	0.400416
2.216398	0.400511
2.217346	0.400272
2.218295	0.399794
2.219244	0.399508
2.220195	0.399173
2.221146	0.398647
2.222098	0.398552
2.223051	0.398456
2.224005	0.397931
2.224959	0.397453
2.225914	0.396736
2.226871	0.396832
2.227827	0.396975
2.228785	0.396879
2.229744	0.396736
2.230703	0.396545
2.231663	0.395876
2.232625	0.395398
2.233587	0.394872
2.234549	0.394347
2.235513	0.393916
2.236477	0.393678
2.237442	0.393773
2.238408	0.393534
2.239375	0.393200
2.240343	0.392817
2.241312	0.392674
2.242281	0.392722
2.243252	0.392339
2.244223	0.391670
2.245195	0.391432
2.246168	0.391288
2.247141	0.390954
2.248116	0.390858
2.249091	0.390715
2.250067	0.390380
2.251044	0.390380
2.252022	0.390046
2.253000	0.389950
2.253980	0.389854
2.254961	0.389233
2.255942	0.389042
2.256924	0.388803
2.257907	0.388469
2.258891	0.388325
2.259876	0.387991
2.260861	0.387608
2.261847	0.387465
2.262835	0.387083
2.263823	0.386987
2.264812	0.387178
2.265802	0.386748
2.266792	0.386175
2.267784	0.385745
2.268776	0.385506
2.269770	0.385267
2.270764	0.385171
2.271759	0.385123
2.272755	0.384550
2.273752	0.384072
2.274750	0.383929
2.275748	0.383547
2.276747	0.383642
2.277748	0.383738
2.278749	0.383308
2.279751	0.382973
2.280754	0.382447
2.281758	0.382113
2.282763	0.381683
2.283768	0.381444
2.284775	0.381061
2.285782	0.380966
2.286791	0.380870
2.287800	0.380679
2.288810	0.380536
2.289821	0.380392
2.290832	0.380058
2.291845	0.379867
2.292859	0.379389
2.293873	0.379007
2.294889	0.379007
2.295905	0.378672
2.296922	0.378529
2.297940	0.378720
2.298960	0.378624
2.299979	0.378672
2.301001	0.378099
2.302022	0.377812
2.303045	0.377812
2.304068	0.377621
2.305093	0.377191
2.306118	0.376761
2.307145	0.376617
2.308172	0.376808
2.309201	0.376808
2.310230	0.376856
2.311260	0.376522
2.312290	0.376139
2.313322	0.375900
2.314355	0.375853
2.315388	0.375661
2.316423	0.375853
2.317458	0.375948
2.318495	0.375853
2.319532	0.375566
2.320570	0.375231
2.321609	0.375040
2.322650	0.375279
2.323691	0.375423
2.324733	0.375423
2.325776	0.375661
2.326820	0.375853
2.327865	0.375757
2.328910	0.375566
2.329957	0.375279
2.331005	0.375279
2.332053	0.375184
2.333103	0.375327
2.334153	0.375948
2.335205	0.376044
2.336257	0.375757
2.337310	0.375709
2.338365	0.375614
2.339420	0.375470
2.340476	0.375996
2.341533	0.376187
2.342591	0.375996
2.343650	0.376330
2.344710	0.376187
2.345771	0.376235
2.346833	0.376426
2.347896	0.376474
2.348960	0.376761
2.350024	0.376713
2.351090	0.376474
2.352157	0.376235
2.353225	0.376330
2.354293	0.376904
2.355363	0.376952
2.356434	0.376713
2.357505	0.376665
2.358577	0.376856
2.359651	0.377000
2.360726	0.376665
2.361801	0.377000
2.362878	0.377095
2.363955	0.377095
2.365033	0.377000
2.366114	0.376808
2.367194	0.377143
2.368275	0.377095
2.369358	0.376761
2.370441	0.376808
2.371525	0.376856
2.372611	0.376856
2.373697	0.376713
2.374785	0.376713
2.375873	0.377047
2.376962	0.377000
2.378052	0.377334
2.379144	0.377334
2.380236	0.377047
2.381330	0.377047
2.382424	0.376904
2.383519	0.376713
2.384615	0.376904
2.385713	0.376856
2.386811	0.376522
2.387911	0.376426
2.389011	0.377000
2.390113	0.377286
2.391215	0.377286
2.392318	0.377573
2.393423	0.377430
2.394528	0.377047
2.395635	0.377191
2.396743	0.377573
2.397851	0.377669
2.398961	0.377812
2.400071	0.378290
2.401183	0.378290
2.402296	0.377908
2.403410	0.378146
2.404524	0.378768
2.405640	0.378768
2.406757	0.378815
2.407875	0.378720
2.408994	0.378624
2.410113	0.378911
2.411234	0.379198
2.412356	0.379150
2.413479	0.379246
2.414603	0.379676
2.415729	0.379962
2.416855	0.379915
2.417982	0.379819
2.419111	0.379867
2.420240	0.379819
2.421371	0.379723
2.422502	0.379962
2.423635	0.380297
2.424768	0.380727
2.425903	0.380918
2.427038	0.381014
2.428176	0.380918
2.429314	0.381061
2.430453	0.381396
2.431592	0.381396
2.432734	0.381109
2.433876	0.381300
2.435019	0.381348
2.436163	0.381587
2.437308	0.381969
2.438454	0.382352
2.439602	0.382352
2.440750	0.382591
2.441900	0.382639
2.443051	0.382782
2.444203	0.383164
2.445355	0.383403
2.446510	0.383594
2.447665	0.383547
2.448821	0.383308
2.449978	0.383642
2.451137	0.384072
2.452296	0.384598
2.453457	0.384789
2.454618	0.384932
2.455781	0.384932
2.456945	0.385267
2.458110	0.385315
2.459276	0.385410
2.460443	0.385745
2.461612	0.385793
2.462781	0.385936
2.463952	0.386175
2.465123	0.386175
2.466296	0.386605
2.467470	0.386844
2.468645	0.387035
2.469821	0.387131
2.470998	0.387370
2.472176	0.387895
2.473356	0.388182
2.474536	0.388564
2.475718	0.388994
2.476901	0.389138
2.478085	0.389185
2.479270	0.389233
2.480456	0.389424
2.481644	0.389520
2.482832	0.389807
2.484022	0.389998
2.485213	0.390141
2.486404	0.390476
2.487597	0.390954
2.488792	0.391097
2.489987	0.391384
2.491184	0.391336
2.492381	0.391336
2.493581	0.391623
2.494781	0.391909
2.495982	0.392196
2.497184	0.392770
2.498387	0.392913
2.499592	0.392961
2.500798	0.393009
2.502005	0.393200
2.503213	0.393486
2.504422	0.393630
2.505633	0.393916
2.506844	0.394155
2.508057	0.394251
2.509271	0.394538
2.510486	0.394824
2.511703	0.395016
2.512920	0.395207
2.514138	0.395493
2.515358	0.395828
2.516579	0.396115
2.517802	0.396401
2.519025	0.396497
2.520250	0.396784
2.521476	0.397214
2.522703	0.397405
2.523931	0.397644
2.525160	0.398217
2.526391	0.398409
2.527622	0.398695
2.528856	0.398886
2.530090	0.398791
2.531325	0.399030
2.532562	0.399412
2.533800	0.399938
2.535039	0.399842
2.536279	0.400129
2.537520	0.400798
2.538763	0.401037
2.540007	0.401180
2.541252	0.401563
2.542498	0.401754
2.543746	0.402136
2.544994	0.402614
2.546244	0.402614
2.547495	0.402423
2.548748	0.402805
2.550002	0.402996
2.551256	0.403187
2.552513	0.403570
2.553771	0.404573
2.555029	0.405386
2.556289	0.405768
2.557550	0.406007
2.558813	0.405768
2.560076	0.404334
2.561341	0.403474
2.562607	0.404095
2.563875	0.404908
2.565143	0.406533
2.566413	0.407918
2.567684	0.407249
2.568957	0.406294
2.570230	0.407202
2.571505	0.407823
2.572781	0.406485
2.574058	0.407488
2.575337	0.408396
2.576617	0.408253
2.577898	0.409352
2.579181	0.410021
2.580465	0.409400
2.581750	0.409448
2.583036	0.408253
2.584324	0.408826
2.585613	0.410021
2.586903	0.409687
2.588195	0.410451
2.589488	0.411502
2.590782	0.412363
2.592077	0.411407
2.593373	0.407345
2.594671	0.405051
2.595971	0.409448
2.597271	0.413318
2.598573	0.414418
2.599876	0.414083
2.601181	0.413653
2.602487	0.413223
2.603794	0.412124
2.605102	0.411263
2.606412	0.412458
2.607723	0.414035
2.609035	0.414465
2.610349	0.415469
2.611664	0.416233
2.612981	0.416138
2.614299	0.416233
2.615618	0.414322
2.616938	0.413653
2.618260	0.415230
2.619583	0.414561
2.620907	0.416042
2.622233	0.418049
2.623560	0.418432
2.624888	0.417667
2.626217	0.416186
2.627548	0.417237
2.628881	0.416377
2.630215	0.415039
2.631550	0.417380
2.632886	0.418193
2.634224	0.418480
2.635564	0.419435
2.636904	0.419770
2.638246	0.419770
2.639590	0.419579
2.640934	0.419387
2.642280	0.419149
2.643628	0.419149
2.644976	0.418671
2.646327	0.418862
2.647678	0.419387
2.649031	0.419483
2.650386	0.418766
2.651741	0.417476
2.653098	0.417428
2.654457	0.417476
2.655817	0.417428
2.657177	0.417667
2.658540	0.416329
2.659904	0.415421
2.661270	0.415421
2.662637	0.415087
2.664005	0.412172
2.665375	0.409925
2.666745	0.409639
2.668118	0.409830
2.669492	0.406341
2.670867	0.405625
2.672244	0.407440
2.673622	0.406102
2.675002	0.402662
2.676383	0.398886
2.677765	0.396210
2.679150	0.393056
2.680535	0.390141
2.681922	0.385267
2.683310	0.379007
2.684700	0.372077
2.686090	0.363953
2.687483	0.355304
2.688877	0.346367
2.690272	0.336380
2.691669	0.325293
2.693067	0.312916
2.694467	0.301399
2.695868	0.289978
2.697270	0.276979
2.698674	0.263455
2.700080	0.252655
2.701487	0.244722
2.702896	0.237220
2.704306	0.228092
2.705717	0.218535
2.707130	0.209455
2.708544	0.201856
2.709960	0.197030
2.711378	0.195740
2.712797	0.195883
2.714217	0.195787
2.715639	0.195596
2.717062	0.194736
2.718487	0.193350
2.719913	0.191678
2.721341	0.191439
2.722770	0.190817
2.724200	0.189718
2.725633	0.189623
2.727067	0.189145
2.728502	0.188046
2.729939	0.186755
2.731377	0.185179
2.732817	0.183506
2.734258	0.181690
2.735701	0.180495
2.737146	0.179109
2.738592	0.176959
2.740039	0.175334
2.741488	0.174761
2.742939	0.174235
2.744391	0.173231
2.745844	0.172324
2.747299	0.171511
2.748756	0.170794
2.750214	0.170077
2.751674	0.169695
2.753135	0.168978
2.754598	0.168070
2.756062	0.168453
2.757528	0.169074
2.758996	0.169170
2.760465	0.168883
2.761936	0.168453
2.763408	0.168835
2.764882	0.169456
2.766357	0.169600
2.767834	0.169934
2.769313	0.170125
2.770793	0.170173
2.772275	0.170747
2.773758	0.171368
2.775243	0.171846
2.776730	0.172037
2.778218	0.172132
2.779707	0.172132
2.781199	0.172419
2.782691	0.172706
2.784185	0.172754
2.785681	0.172706
2.787179	0.172897
2.788678	0.173327
2.790179	0.173709
2.791682	0.174044
2.793186	0.174331
2.794692	0.174617
2.796200	0.174856
2.797709	0.174904
2.799219	0.175047
2.800731	0.175239
2.802245	0.175143
2.803761	0.175525
2.805278	0.176051
2.806797	0.176481
2.808318	0.177007
2.809840	0.177246
2.811363	0.177580
2.812889	0.177963
2.814416	0.178297
2.815945	0.178632
2.817475	0.178918
2.819007	0.179205
2.820540	0.179635
2.822076	0.179970
2.823613	0.180400
2.825152	0.180925
2.826692	0.181355
2.828234	0.181738
2.829778	0.182311
2.831324	0.182694
2.832871	0.182980
2.834420	0.183410
2.835971	0.183697
2.837523	0.183984
2.839077	0.184366
2.840632	0.184892
2.842190	0.185370
2.843749	0.185704
2.845310	0.185800
2.846872	0.185943
2.848437	0.186278
2.850003	0.186564
2.851570	0.187090
2.853140	0.187377
2.854711	0.187616
2.856283	0.187711
2.857857	0.187998
2.859434	0.188237
2.861012	0.188094
2.862592	0.188189
2.864173	0.188428
2.865757	0.188667
2.867342	0.188906
2.868929	0.189049
2.870517	0.189097
2.872108	0.189193
2.873699	0.189288
2.875293	0.189288
2.876889	0.189193
2.878486	0.189288
2.880085	0.189623
2.881686	0.189718
2.883289	0.189575
2.884893	0.189623
2.886499	0.189766
2.888107	0.189862
2.889717	0.189862
2.891329	0.189671
2.892942	0.189718
2.894558	0.189957
2.896175	0.190292
2.897794	0.190483
2.899415	0.190626
2.901037	0.190674
2.902662	0.190817
2.904288	0.190913
2.905916	0.191104
2.907546	0.191391
2.909178	0.191678
2.910811	0.191917
2.912446	0.192060
2.914083	0.192251
2.915722	0.192394
2.917363	0.192538
2.919006	0.192825
2.920650	0.193016
2.922296	0.193159
2.923944	0.193446
2.925594	0.193876
2.927246	0.194019
2.928900	0.194210
2.930556	0.194641
2.932213	0.194927
2.933873	0.195214
2.935534	0.195310
2.937198	0.195596
2.938863	0.195835
2.940530	0.196074
2.942199	0.196456
2.943869	0.196600
2.945542	0.196839
2.947217	0.197221
2.948893	0.197556
2.950572	0.197747
2.952252	0.197986
2.953934	0.198511
2.955618	0.198989
2.957304	0.199180
2.958992	0.199372
2.960681	0.199658
2.962373	0.199802
2.964067	0.200232
2.965763	0.200566
2.967460	0.200853
2.969160	0.201140
2.970861	0.201618
2.972565	0.202000
2.974271	0.202382
2.975978	0.202812
2.977687	0.203147
2.979398	0.203434
2.981112	0.203816
2.982827	0.204198
2.984544	0.204485
2.986264	0.204772
2.987985	0.205345
2.989709	0.205966
2.991434	0.206349
2.993161	0.206540
2.994890	0.206922
2.996621	0.207400
2.998354	0.207782
3.000089	0.208356
3.001826	0.209025
3.003565	0.209455
3.005306	0.209694
3.007050	0.210028
3.008795	0.210602
3.010542	0.210984
3.012291	0.211462
3.014043	0.211844
3.015796	0.212322
3.017552	0.212896
3.019309	0.213326
3.021069	0.213756
3.022830	0.214186
3.024594	0.214616
3.026360	0.215142
3.028127	0.215524
3.029897	0.215906
3.031669	0.216288
3.033443	0.216623
3.035219	0.217005
3.036998	0.217340
3.038778	0.217674
3.040560	0.218104
3.042344	0.218535
3.044130	0.218869
3.045919	0.219204
3.047709	0.219490
3.049502	0.219873
3.051297	0.220159
3.053094	0.220446
3.054893	0.220589
3.056694	0.220733
3.058498	0.220924
3.060303	0.221211
3.062111	0.221545
3.063921	0.221784
3.065733	0.222071
3.067547	0.222405
3.069363	0.222644
3.071181	0.222788
3.073001	0.223027
3.074824	0.223409
3.076649	0.223696
3.078476	0.224030
3.080305	0.224365
3.082136	0.224604
3.083970	0.224795
3.085805	0.225177
3.087644	0.225655
3.089484	0.225846
3.091326	0.226085
3.093171	0.226467
3.095017	0.226850
3.096866	0.227232
3.098717	0.227519
3.100570	0.227901
3.102426	0.228474
3.104284	0.228809
3.106144	0.229143
3.108006	0.229717
3.109871	0.230482
3.111737	0.231007
3.113606	0.231437
3.115477	0.231963
3.117350	0.232441
3.119226	0.232919
3.121104	0.233492
3.122984	0.234066
3.124866	0.234544
3.126751	0.235117
3.128638	0.235786
3.130527	0.236455
3.132419	0.237076
3.134313	0.237650
3.136209	0.238175
3.138108	0.238797
3.140008	0.239466
3.141912	0.240182
3.143817	0.240852
3.145725	0.241425
3.147635	0.241998
3.149547	0.242572
3.151462	0.243336
3.153378	0.244101
3.155298	0.244722
3.157219	0.245344
3.159143	0.246013
3.161070	0.246634
3.162998	0.247303
3.164929	0.247924
3.166862	0.248545
3.168798	0.249310
3.170736	0.250027
3.172677	0.250839
3.174619	0.251556
3.176565	0.252082
3.178513	0.252894
3.180463	0.253611
3.182415	0.254184
3.184370	0.254710
3.186327	0.255427
3.188287	0.256191
3.190248	0.256813
3.192213	0.257530
3.194180	0.258151
3.196149	0.258724
3.198121	0.259537
3.200095	0.260158
3.202072	0.260684
3.204051	0.261353
3.206032	0.262213
3.208016	0.263025
3.210002	0.263599
3.211991	0.264124
3.213982	0.264698
3.215976	0.265510
3.217972	0.266179
3.219971	0.266753
3.221972	0.267374
3.223976	0.268043
3.225982	0.268712
3.227991	0.269381
3.230002	0.269954
3.232016	0.270528
3.234032	0.271149
3.236051	0.271914
3.238072	0.272535
3.240096	0.273013
3.242123	0.273539
3.244152	0.274303
3.246183	0.274972
3.248217	0.275450
3.250253	0.276167
3.252293	0.276836
3.254334	0.277409
3.256378	0.278031
3.258425	0.278652
3.260474	0.279273
3.262526	0.279942
3.264580	0.280516
3.266638	0.281041
3.268697	0.281615
3.270760	0.282188
3.272825	0.282857
3.274892	0.283478
3.276962	0.284100
3.279035	0.284673
3.281110	0.285247
3.283188	0.285772
3.285269	0.286489
3.287352	0.287110
3.289438	0.287588
3.291526	0.288066
3.293617	0.288640
3.295711	0.289165
3.297807	0.289643
3.299906	0.290121
3.302008	0.290694
3.304113	0.291124
3.306220	0.291650
3.308330	0.292271
3.310443	0.292749
3.312558	0.293227
3.314676	0.293848
3.316797	0.294422
3.318920	0.294900
3.321046	0.295378
3.323175	0.295951
3.325307	0.296477
3.327442	0.297002
3.329579	0.297337
3.331719	0.297671
3.333861	0.298102
3.336007	0.298579
3.338155	0.298962
3.340306	0.299392
3.342458	0.299679
3.344615	0.299822
3.346774	0.300109
3.348936	0.300539
3.351101	0.300778
3.353268	0.300969
3.355439	0.301160
3.357612	0.301399
3.359789	0.301494
3.361968	0.301447
3.364149	0.301399
3.366334	0.301399
3.368521	0.301494
3.370711	0.301590
3.372904	0.301638
3.375100	0.301877
3.377300	0.301925
3.379501	0.302068
3.381706	0.302307
3.383913	0.302594
3.386123	0.302976
3.388336	0.303406
3.390553	0.303788
3.392771	0.304362
3.394992	0.304744
3.397217	0.304744
3.399445	0.304648
3.401675	0.304505
3.403909	0.304362
3.406146	0.304218
3.408385	0.303979
3.410627	0.303932
3.412873	0.303979
3.415121	0.304362
3.417372	0.304792
3.419626	0.305413
3.421884	0.306369
3.424144	0.307564
3.426407	0.308758
3.428673	0.310001
3.430943	0.311100
3.433215	0.312008
3.435490	0.312820
3.437768	0.313489
3.440049	0.314111
3.442333	0.314827
3.444621	0.315353
3.446911	0.315926
3.449204	0.316595
3.451500	0.317121
3.453800	0.317647
3.456102	0.318316
3.458408	0.318889
3.460716	0.319272
3.463028	0.319654
3.465343	0.319893
3.467662	0.320180
3.469983	0.320275
3.472307	0.320275
3.474634	0.320419
3.476965	0.320514
3.479298	0.320610
3.481635	0.320801
3.483975	0.321040
3.486317	0.321231
3.488663	0.321470
3.491012	0.321852
3.493365	0.321996
3.495720	0.321948
3.498079	0.322139
3.500441	0.322378
3.502806	0.322760
3.505175	0.323525
3.507547	0.324385
3.509921	0.325245
3.512299	0.326201
3.514681	0.327109
3.517065	0.327921
3.519453	0.328638
3.521844	0.329498
3.524238	0.330358
3.526636	0.331266
3.529036	0.331935
3.531440	0.332557
3.533848	0.333274
3.536258	0.333799
3.538672	0.334325
3.541089	0.334898
3.543509	0.335281
3.545932	0.335615
3.548359	0.336093
3.550790	0.336571
3.553223	0.336905
3.555660	0.337288
3.558101	0.337718
3.560545	0.338148
3.562992	0.338435
3.565443	0.338626
3.567896	0.338817
3.570354	0.339295
3.572814	0.339725
3.575278	0.340155
3.577746	0.340490
3.580216	0.340776
3.582691	0.341111
3.585169	0.341397
3.587650	0.341541
3.590135	0.341828
3.592623	0.342066
3.595114	0.342353
3.597609	0.342592
3.600107	0.342879
3.602608	0.343166
3.605114	0.343405
3.607622	0.343596
3.610135	0.343882
3.612650	0.344169
3.615170	0.344360
3.617692	0.344599
3.620219	0.344838
3.622749	0.345029
3.625283	0.345316
3.627819	0.345555
3.630360	0.345698
3.632904	0.345842
3.635452	0.346033
3.638003	0.346320
3.640558	0.346511
3.643116	0.346702
3.645679	0.346941
3.648244	0.347132
3.650813	0.347275
3.653386	0.347467
3.655962	0.347753
3.658543	0.347944
3.661126	0.348183
3.663713	0.348422
3.666304	0.348709
3.668898	0.348900
3.671497	0.349044
3.674099	0.349235
3.676705	0.349378
3.679314	0.349617
3.681927	0.349904
3.684544	0.350095
3.687165	0.350334
3.689789	0.350573
3.692417	0.350668
3.695049	0.350859
3.697685	0.351098
3.700324	0.351194
3.702967	0.351385
3.705615	0.351576
3.708265	0.351767
3.710920	0.352006
3.713578	0.352245
3.716240	0.352484
3.718906	0.352771
3.721576	0.353010
3.724249	0.353201
3.726926	0.353344
3.729607	0.353488
3.732292	0.353727
3.734981	0.354014
3.737674	0.354252
3.740371	0.354444
3.743071	0.354635
3.745776	0.354778
3.748485	0.355017
3.751197	0.355256
3.753913	0.355495
3.756634	0.355686
3.759358	0.355829
3.762086	0.355973
3.764818	0.356212
3.767554	0.356594
3.770293	0.356785
3.773037	0.356976
3.775785	0.357168
3.778537	0.357406
3.781293	0.357550
3.784053	0.357693
3.786817	0.357741
3.789586	0.357884
3.792358	0.358123
3.795134	0.358314
3.797915	0.358506
3.800699	0.358601
3.803488	0.358649
3.806280	0.358745
3.809077	0.358888
3.811877	0.359031
3.814683	0.359127
3.817492	0.359318
3.820305	0.359461
3.823123	0.359557
3.825944	0.359700
3.828770	0.359891
3.831600	0.359939
3.834434	0.360035
3.837271	0.360130
3.840113	0.360178
3.842960	0.360369
3.845811	0.360608
3.848666	0.360608
3.851525	0.360656
3.854389	0.360799
3.857257	0.360895
3.860130	0.361038
3.863006	0.361229
3.865887	0.361373
3.868772	0.361421
3.871661	0.361468
3.874554	0.361612
3.877452	0.361755
3.880355	0.361899
3.883262	0.361994
3.886173	0.362090
3.889088	0.362185
3.892008	0.362329
3.894932	0.362424
3.897861	0.362472
3.900793	0.362568
3.903731	0.362711
3.906672	0.362854
3.909618	0.362950
3.912569	0.362950
3.915524	0.362950
3.918483	0.362902
3.921447	0.362998
3.924416	0.362998
3.927389	0.363093
3.930367	0.363237
3.933349	0.363189
3.936336	0.363045
3.939327	0.362950
3.942322	0.362854
3.945323	0.362663
3.948327	0.362520
3.951337	0.362424
3.954351	0.362185
3.957370	0.362090
3.960393	0.362090
3.963421	0.362090
3.966453	0.362042
3.969490	0.362090
3.972532	0.361851
3.975579	0.361851
3.978629	0.361899
3.981685	0.361851
3.984745	0.362042
3.987810	0.362137
3.990880	0.362233
3.993955	0.362376
3.997034	0.362568
4.000118	0.362759
